Day fraction since midnight on 	Photometer (mg/L)	Photometer (volts)	Source pressure (Pa)
0.6177844079	-3.5948781967	3.5557317734	0.0000000000
0.6178422195	-3.5948960781	3.5557410717	0.0000000000
0.6179001447	-3.5949132442	3.5557501316	0.0000000000
adding dye
0.6179579814	-3.5949177742	3.5557525158	0.0000000000
0.6180159045	-3.5949072838	3.5557470322	0.0000000000
0.6180737356	-3.5949227810	3.5557551384	0.0000000000
0.6181315532	-3.5948841572	3.5557348728	0.0000000000
0.6181895164	-3.5948212147	3.5557019711	0.0000000000
0.6182473588	-3.5947523117	3.5556659698	0.0000000000
0.6183052461	-3.5946748257	3.5556254387	0.0000000000
0.6183630720	-3.5947878361	3.5556845665	0.0000000000
0.6184209118	-3.5947229862	3.5556507111	0.0000000000
0.6184788520	-3.5948603153	3.5557224751	0.0000000000
0.6185367191	-3.5948858261	3.5557358265	0.0000000000
0.6185945579	-3.5949237347	3.5557556152	0.0000000000
0.6186524676	-3.5950241089	3.5558080673	0.0000000000
0.6187102929	-3.5950574875	3.5558254719	0.0000000000
0.6187682270	-3.5951440334	3.5558707714	0.0000000000
0.6188260841	-3.5951614380	3.5558798313	0.0000000000
0.6188839290	-3.5952372551	3.5559194088	0.0000000000
0.6189417586	-3.5952832699	3.5559434891	0.0000000000
0.6189996692	-3.5952932835	3.5559487343	0.0000000000
0.6190574879	-3.5953297615	3.5559678078	0.0000000000
0.6191154497	-3.5953845978	3.5559964180	0.0000000000
0.6191732206	-3.5954341888	3.5560224056	0.0000000000
0.6192311730	-3.5954666138	3.5560393333	0.0000000000
0.6192890148	-3.5954995155	3.5560564995	0.0000000000
0.6193469133	-3.5955169201	3.5560655594	0.0000000000
0.6194048013	-3.5955159664	3.5560650826	0.0000000000
0.6194625760	-3.5955829620	3.5561001301	0.0000000000
0.6195204261	-3.5955579281	3.5560870171	0.0000000000
0.6195783825	-3.5955073833	3.5560605526	0.0000000000
0.6196362655	-3.5945856571	3.5555789471	0.0000000000
0.6196941508	-3.5872330666	3.5517380238	0.0000000000
0.6197519990	-3.5534398556	3.5341238976	0.0000000000
0.6198099053	-2.8445003033	3.1789736748	0.0000000000
0.6198677482	-0.0664113685	2.0210626125	0.0000000000
0.6199256019	3.7045090199	0.9121660590	0.0000000000
0.6199834378	8.1027717590	0.0762951747	0.0000000000
0.6200413656	12.7442102432	-0.4669533670	0.0000000000
0.6200991729	17.1256847382	-0.7823811769	0.0000000000
0.6201570305	21.2874660492	-0.9715216160	0.0000000000
0.6202149629	24.9323577881	-1.0802031755	0.0000000000
0.6202728308	28.0173320770	-1.1441581249	0.0000000000
0.6203306960	30.5443477631	-1.1828485727	0.0000000000
0.6203885245	32.7322998047	-1.2088298798	0.0000000000
0.6204464494	34.5330162048	-1.2260746956	0.0000000000
0.6205042411	36.0270462036	-1.2380549908	0.0000000000
0.6205621099	37.2692680359	-1.2466511726	0.0000000000
0.6206200045	38.4010353088	-1.2535440922	0.0000000000
0.6206778484	39.2507171631	-1.2581950426	0.0000000000
0.6207357153	40.0246543884	-1.2620772123	0.0000000000
0.6207936417	40.6821784973	-1.2651309967	0.0000000000
0.6208515084	41.0844268799	-1.2668955326	0.0000000000
0.6209093968	41.5513153076	-1.2688502073	0.0000000000
0.6209672433	42.0010986328	-1.2706427574	0.0000000000
0.6210251506	42.3623580933	-1.2720210552	0.0000000000
0.6210830395	42.6849555969	-1.2732074261	0.0000000000
0.6211408916	42.7886734009	-1.2735801935	0.0000000000
0.6211987191	42.9597702026	-1.2741861343	0.0000000000
0.6212566449	43.2495765686	-1.2751873732	0.0000000000
0.6213144401	43.4329528809	-1.2758049965	0.0000000000
0.6213722726	43.4971923828	-1.2760185003	0.0000000000
0.6214301868	43.5329666138	-1.2761367559	0.0000000000
0.6214881002	43.6022338867	-1.2763644457	0.0000000000
0.6215459899	43.6919937134	-1.2766569853	0.0000000000
0.6216038296	43.8173217773	-1.2770607471	0.0000000000
0.6216617389	43.9390335083	-1.2774477005	0.0000000000
0.6217195574	44.0405502319	-1.2777665854	0.0000000000
0.6217774561	44.1180648804	-1.2780077457	0.0000000000
0.6218353438	44.1877365112	-1.2782227993	0.0000000000
0.6218931198	44.2434921265	-1.2783937454	0.0000000000
0.6219510720	44.2873497009	-1.2785274982	0.0000000000
0.6220089098	44.3174133301	-1.2786188126	0.0000000000
0.6220667467	44.3487968445	-1.2787138224	0.0000000000
0.6221246640	44.3856697083	-1.2788250446	0.0000000000
0.6221824634	44.4180374146	-1.2789223194	0.0000000000
0.6222404475	44.4498443604	-1.2790175676	0.0000000000
0.6222982744	44.4872398376	-1.2791291475	0.0000000000
0.6223561211	44.5218925476	-1.2792321444	0.0000000000
0.6224139919	44.5670471191	-1.2793657780	0.0000000000
0.6224718311	44.6017150879	-1.2794679403	0.0000000000
0.6225297125	44.6344413757	-1.2795640230	0.0000000000
0.6225875659	44.6720581055	-1.2796740532	0.0000000000
0.6226455185	44.7095794678	-1.2797833681	0.0000000000
0.6227033193	44.7470893860	-1.2798922062	0.0000000000
0.6227611716	44.7594490051	-1.2799279690	0.0000000000
0.6228190326	44.7963333130	-1.2800344229	0.0000000000
0.6228770182	44.8274230957	-1.2801238298	0.0000000000
0.6229348022	44.8443832397	-1.2801724672	0.0000000000
0.6229926612	44.8742561340	-1.2802579403	0.0000000000
0.6230505555	44.8839035034	-1.2802854776	0.0000000000
0.6231083910	44.9041023254	-1.2803430557	0.0000000000
0.6231663603	44.9164619446	-1.2803782225	0.0000000000
0.6232241573	44.9321975708	-1.2804229259	0.0000000000
0.6232820922	44.9471588135	-1.2804653645	0.0000000000
0.6233399695	44.9626922607	-1.2805093527	0.0000000000
0.6233978509	44.9822616577	-1.2805646658	0.0000000000
0.6234556635	44.9795188904	-1.2805569172	0.0000000000
0.6235135584	44.9888954163	-1.2805833817	0.0000000000
0.6235714436	45.0105934143	-1.2806445360	0.0000000000
0.6236292305	45.0133476257	-1.2806522846	0.0000000000
0.6236871106	45.0141944885	-1.2806546688	0.0000000000
0.6237449742	45.0171203613	-1.2806628942	0.0000000000
0.6238029075	45.0237731934	-1.2806816101	0.0000000000
0.6238607629	45.0377388000	-1.2807208300	0.0000000000
0.6239186129	45.0365486145	-1.2807174921	0.0000000000
0.6239764862	45.0432624817	-1.2807363272	0.0000000000
0.6240343353	45.0493392944	-1.2807533741	0.0000000000
0.6240922276	45.0549545288	-1.2807691097	0.0000000000
0.6241500978	45.0640220642	-1.2807945013	0.0000000000
